Log(E/eV)	Log(R/pc)	Syn	IC	ICcmb	Dif	Acc	Adia
6	0	-10.1514	-10.5999	-22.0858	-22.3798	5.17741	-7.18923
6.45	0	-9.70143	-9.95817	-21.5599	-21.9298	4.72741	-7.18923
6.9	0	-9.25143	-9.51208	-21.1	-21.4798	4.27741	-7.18923
7.35	0	-8.80143	-9.08577	-20.6483	-21.0298	3.82741	-7.18923
7.8	0	-8.35143	-8.663	-20.1979	-20.5798	3.37741	-7.18923
8.25	0	-7.90143	-8.24193	-19.7476	-20.1298	2.92741	-7.18923
8.7	0	-7.45143	-7.82275	-19.2975	-19.6798	2.47741	-7.18923
9.15	0	-7.00143	-7.40684	-18.8475	-19.2298	2.02741	-7.18923
9.6	0	-6.55143	-6.99805	-18.3976	-18.7798	1.57741	-7.18923
10.05	0	-6.10143	-6.60659	-17.9478	-18.3298	1.12741	-7.18923
10.5	0	-5.65143	-6.25639	-17.4981	-17.8798	0.677406	-7.18923
10.95	0	-5.20143	-5.99153	-17.0486	-17.4298	0.227406	-7.18923
11.4	0	-4.75143	-5.86456	-16.5994	-16.9798	-0.222594	-7.18923
11.85	0	-4.30143	-5.90368	-16.151	-16.5298	-0.672594	-7.18923
12.3	0	-3.85143	-6.09632	-15.7045	-16.0798	-1.12259	-7.18923
12.75	0	-3.40143	-6.40457	-15.2636	-15.6298	-1.57259	-7.18923
13.2	0	-2.95143	-6.78792	-14.8369	-15.1798	-2.02259	-7.18923
13.65	0	-2.50143	-7.21507	-14.4449	-14.7298	-2.47259	-7.18923
14.1	0	-2.05143	-7.66556	-14.1231	-14.2798	-2.92259	-7.18923
14.55	0	-1.60143	-8.12724	-13.9091	-13.8298	-3.37259	-7.18923
15	0	-1.15143	-8.5937	-13.8203	-13.3798	-3.82259	-7.18923
6	1	-12.1514	-12.5999	-22.0858	-23.3798	4.17741	-8.18923
6.45	1	-11.7014	-11.9582	-21.5599	-22.9298	3.72741	-8.18923
6.9	1	-11.2514	-11.5121	-21.1	-22.4798	3.27741	-8.18923
7.35	1	-10.8014	-11.0858	-20.6483	-22.0298	2.82741	-8.18923
7.8	1	-10.3514	-10.663	-20.1979	-21.5798	2.37741	-8.18923
8.25	1	-9.90143	-10.2419	-19.7476	-21.1298	1.92741	-8.18923
8.7	1	-9.45143	-9.82275	-19.2975	-20.6798	1.47741	-8.18923
9.15	1	-9.00143	-9.40684	-18.8475	-20.2298	1.02741	-8.18923
9.6	1	-8.55143	-8.99805	-18.3976	-19.7798	0.577406	-8.18923
10.05	1	-8.10143	-8.60659	-17.9478	-19.3298	0.127406	-8.18923
10.5	1	-7.65143	-8.25639	-17.4981	-18.8798	-0.322594	-8.18923
10.95	1	-7.20143	-7.99153	-17.0486	-18.4298	-0.772594	-8.18923
11.4	1	-6.75143	-7.86456	-16.5994	-17.9798	-1.22259	-8.18923
11.85	1	-6.30143	-7.90368	-16.151	-17.5298	-1.67259	-8.18923
12.3	1	-5.85143	-8.09632	-15.7045	-17.0798	-2.12259	-8.18923
12.75	1	-5.40143	-8.40457	-15.2636	-16.6298	-2.57259	-8.18923
13.2	1	-4.95143	-8.78792	-14.8369	-16.1798	-3.02259	-8.18923
13.65	1	-4.50143	-9.21507	-14.4449	-15.7298	-3.47259	-8.18923
14.1	1	-4.05143	-9.66556	-14.1231	-15.2798	-3.92259	-8.18923
14.55	1	-3.60143	-10.1272	-13.9091	-14.8298	-4.37259	-8.18923
15	1	-3.15143	-10.5937	-13.8203	-14.3798	-4.82259	-8.18923
6	2	-14.1514	-14.5999	-22.0858	-24.3798	3.17741	-9.18923
6.45	2	-13.7014	-13.9582	-21.5599	-23.9298	2.72741	-9.18923
6.9	2	-13.2514	-13.5121	-21.1	-23.4798	2.27741	-9.18923
7.35	2	-12.8014	-13.0858	-20.6483	-23.0298	1.82741	-9.18923
7.8	2	-12.3514	-12.663	-20.1979	-22.5798	1.37741	-9.18923
8.25	2	-11.9014	-12.2419	-19.7476	-22.1298	0.927406	-9.18923
8.7	2	-11.4514	-11.8228	-19.2975	-21.6798	0.477406	-9.18923
9.15	2	-11.0014	-11.4068	-18.8475	-21.2298	0.0274058	-9.18923
9.6	2	-10.5514	-10.998	-18.3976	-20.7798	-0.422594	-9.18923
10.05	2	-10.1014	-10.6066	-17.9478	-20.3298	-0.872594	-9.18923
10.5	2	-9.65143	-10.2564	-17.4981	-19.8798	-1.32259	-9.18923
10.95	2	-9.20143	-9.99153	-17.0486	-19.4298	-1.77259	-9.18923
11.4	2	-8.75143	-9.86456	-16.5994	-18.9798	-2.22259	-9.18923
11.85	2	-8.30143	-9.90368	-16.151	-18.5298	-2.67259	-9.18923
12.3	2	-7.85143	-10.0963	-15.7045	-18.0798	-3.12259	-9.18923
12.75	2	-7.40143	-10.4046	-15.2636	-17.6298	-3.57259	-9.18923
13.2	2	-6.95143	-10.7879	-14.8369	-17.1798	-4.02259	-9.18923
13.65	2	-6.50143	-11.2151	-14.4449	-16.7298	-4.47259	-9.18923
14.1	2	-6.05143	-11.6656	-14.1231	-16.2798	-4.92259	-9.18923
14.55	2	-5.60143	-12.1272	-13.9091	-15.8298	-5.37259	-9.18923
15	2	-5.15143	-12.5937	-13.8203	-15.3798	-5.82259	-9.18923
6	3	-16.1514	-16.5999	-22.0858	-25.3798	2.17741	-10.1892
6.45	3	-15.7014	-15.9582	-21.5599	-24.9298	1.72741	-10.1892
6.9	3	-15.2514	-15.5121	-21.1	-24.4798	1.27741	-10.1892
7.35	3	-14.8014	-15.0858	-20.6483	-24.0298	0.827406	-10.1892
7.8	3	-14.3514	-14.663	-20.1979	-23.5798	0.377406	-10.1892
8.25	3	-13.9014	-14.2419	-19.7476	-23.1298	-0.0725942	-10.1892
8.7	3	-13.4514	-13.8228	-19.2975	-22.6798	-0.522594	-10.1892
9.15	3	-13.0014	-13.4068	-18.8475	-22.2298	-0.972594	-10.1892
9.6	3	-12.5514	-12.998	-18.3976	-21.7798	-1.42259	-10.1892
10.05	3	-12.1014	-12.6066	-17.9478	-21.3298	-1.87259	-10.1892
10.5	3	-11.6514	-12.2564	-17.4981	-20.8798	-2.32259	-10.1892
10.95	3	-11.2014	-11.9915	-17.0486	-20.4298	-2.77259	-10.1892
11.4	3	-10.7514	-11.8646	-16.5994	-19.9798	-3.22259	-10.1892
11.85	3	-10.3014	-11.9037	-16.151	-19.5298	-3.67259	-10.1892
12.3	3	-9.85143	-12.0963	-15.7045	-19.0798	-4.12259	-10.1892
12.75	3	-9.40143	-12.4046	-15.2636	-18.6298	-4.57259	-10.1892
13.2	3	-8.95143	-12.7879	-14.8369	-18.1798	-5.02259	-10.1892
13.65	3	-8.50143	-13.2151	-14.4449	-17.7298	-5.47259	-10.1892
14.1	3	-8.05143	-13.6656	-14.1231	-17.2798	-5.92259	-10.1892
14.55	3	-7.60143	-14.1272	-13.9091	-16.8298	-6.37259	-10.1892
15	3	-7.15143	-14.5937	-13.8203	-16.3798	-6.82259	-10.1892
